PE FL                   SPECTRUM    ASCII       PEDS        1.60        
  -1
SALICILATOEXC.SP
16/05/04
11:22:52.00
16/05/04
11:23:02.00


350.000000
1









LS55
490.00
2.50
2.50
SCAN
1
16
100
100
0
1200
0
0
0
1
7
ON
480 350 
1 0 0
#HDR
-1
-1
#GR
NM
INT 
0.00002384185791015625
0.0
260.000000
0.500000
181
8
715.546000
21.185000
#DATA
260.000000	414.856000 
260.500000	432.237000 
261.000000	316.088000 
261.500000	316.187000 
262.000000	494.100000 
262.500000	487.218000 
263.000000	542.649000 
263.500000	415.769000 
264.000000	444.449000 
264.500000	475.401000 
265.000000	558.115000 
265.500000	532.825000 
266.000000	499.067000 
266.500000	540.106000 
267.000000	505.170000 
267.500000	556.070000 
268.000000	581.756999 
268.500000	560.089000 
269.000000	557.423000 
269.500000	557.689000 
270.000000	538.716000 
270.500000	502.092000 
271.000000	578.522000 
271.500000	460.937000 
272.000000	461.140000 
272.500000	540.598000 
273.000000	496.352000 
273.500000	421.840000 
274.000000	715.546000 
274.500000	410.408000 
275.000000	476.623000 
275.500000	449.021000 
276.000000	279.623000 
276.500000	319.120000 
277.000000	242.340000 
277.500000	246.655000 
278.000000	349.808000 
278.500000	276.705000 
279.000000	348.218000 
279.500000	246.723000 
280.000000	226.717000 
280.500000	251.444000 
281.000000	214.745000 
281.500000	199.060000 
282.000000	161.478000 
282.500000	220.752000 
283.000000	146.365000 
283.500000	143.616000 
284.000000	137.454000 
284.500000	152.983000 
285.000000	162.380000 
285.500000	89.128000  
286.000000	75.744000  
286.500000	76.339000  
287.000000	90.545000  
287.500000	109.422000 
288.000000	102.813000 
288.500000	122.149000 
289.000000	62.470000  
289.500000	92.656000  
290.000000	116.317000 
290.500000	84.480999  
291.000000	56.310000  
291.500000	51.690000  
292.000000	83.931000  
292.500000	76.203999  
293.000000	43.531000  
293.500000	70.214000  
294.000000	56.067000  
294.500000	75.384000  
295.000000	76.846000  
295.500000	48.075000  
296.000000	67.164000  
296.500000	64.045000  
297.000000	89.927000  
297.500000	50.553000  
298.000000	72.050000  
298.500000	53.542000  
299.000000	36.433000  
299.500000	52.375000  
300.000000	41.735000  
300.500000	77.977999  
301.000000	84.242000  
301.500000	74.516000  
302.000000	73.849999  
302.500000	79.131000  
303.000000	82.161000  
303.500000	86.824000  
304.000000	89.152000  
304.500000	110.358000 
305.000000	98.842000  
305.500000	97.315000  
306.000000	142.799000 
306.500000	102.663000 
307.000000	185.234000 
307.500000	142.765000 
308.000000	152.105000 
308.500000	215.584000 
309.000000	192.201000 
309.500000	181.061000 
310.000000	292.300000 
310.500000	289.996000 
311.000000	345.450000 
311.500000	346.774000 
312.000000	394.174000 
312.500000	371.233000 
313.000000	400.599000 
313.500000	432.390000 
314.000000	564.985000 
314.500000	538.583000 
315.000000	487.762000 
315.500000	501.202000 
316.000000	572.457000 
316.500000	654.503000 
317.000000	589.751000 
317.500000	474.668000 
318.000000	540.506000 
318.500000	554.187000 
319.000000	487.606000 
319.500000	611.850000 
320.000000	573.870000 
320.500000	526.423000 
321.000000	389.300000 
321.500000	534.500000 
322.000000	562.624000 
322.500000	544.517000 
323.000000	503.995000 
323.500000	515.658000 
324.000000	440.966000 
324.500000	473.868000 
325.000000	397.120000 
325.500000	376.785000 
326.000000	400.750000 
326.500000	493.051000 
327.000000	450.977000 
327.500000	362.045000 
328.000000	351.130000 
328.500000	364.895000 
329.000000	325.999000 
329.500000	325.675000 
330.000000	299.192000 
330.500000	310.570000 
331.000000	265.413000 
331.500000	255.136000 
332.000000	242.329000 
332.500000	243.726000 
333.000000	258.380000 
333.500000	256.361000 
334.000000	215.436000 
334.500000	195.393000 
335.000000	227.767000 
335.500000	217.762000 
336.000000	160.663000 
336.500000	182.065000 
337.000000	146.151000 
337.500000	147.452000 
338.000000	171.041000 
338.500000	167.867000 
339.000000	101.890000 
339.500000	103.531000 
340.000000	155.116000 
340.500000	101.607000 
341.000000	105.770000 
341.500000	113.870000 
342.000000	98.506000  
342.500000	104.652000 
343.000000	91.175000  
343.500000	81.700999  
344.000000	70.947999  
344.500000	64.262000  
345.000000	58.788000  
345.500000	51.526000  
346.000000	64.174000  
346.500000	36.849000  
347.000000	41.118000  
347.500000	42.933000  
348.000000	21.185000  
348.500000	29.394000  
349.000000	25.315000  
349.500000	30.243000  
350.000000	22.584000  

